40
*HGT [km]
0 0.10435512 0.21960023 0.34687177 0.48742473 0.64264512 0.81406355 1.0033704 1.2124323 1.443311 1.698283 1.9798626 2.2908266 2.6342412 3.0134929 3.4323214 3.8948568 4.4056602 4.9697686 5.5927445 6.2807311 7.0405127 7.8795814 8.8062112 9.8295396 10.959657 12.207709 13.586001 15.108125 16.78909 18.645473 20.695579 22.959624 25.459933 28.221162 31.27054 34.638137 38.357159 42.46428 47
*PRE [mb]
500 494.84103 489.33439 483.31713 476.74895 469.58787 461.79051 453.31244 444.10867 434.13428 423.34518 411.69908 399.15667 385.68298 371.24909 355.83407 339.42734 322.03141 303.66503 284.36687 264.19977 243.25542 221.6594 199.57633 177.21437 154.82825 130.41315 109.67603 90.584431 73.337794 58.080465 44.597747 33.624203 24.72913 17.710277 12.328877 8.180473 5.3928459 3.4970854 2.2315805
*TEM [K]
210 209.54084 209.03376 208.47376 207.85533 207.17236 206.41812 205.58517 204.6653 203.64943 202.52755 201.2886 199.92036 198.40934 196.74063 194.89779 192.86263 190.6151 188.13302 185.39192 182.36478 179.02174 175.32984 171.25267 166.75003 161.77751 156.28608 156.28608 156.28608 156.28608 156.28608 156.28608 158.55013 161.05043 163.81166 166.86104 170.22864 180.6419 192.14184 204.84186
*H2O [ppmv]
14.035208 13.300899 12.527148 11.720344 10.884451 10.024612 9.1472271 8.2599816 7.3718227 6.4928508 5.6341145 4.8072905 4.0242393 3.2964382 2.6343086 2.0464792 1.5390495 1.1149461 0.77348093 0.51022604 0.31729663 0.18407744 0.098341614 0.047603418 0.020454657 0.0075989265 0.0023998515 0.0023998515 0.0023998515 0.0023998515 0.0023998515 0.0023998515 0.0023998515 0.0023998515 0.0023998515 0.0023998515 0.0023998515 0.0023998515 0.0023998515 0.0023998515
*CO2 [ppmv]
914272.88 916022.24 918533.6 921247 924170.89 927312.09 930675.13 934261.51 938068.8 942089.65 946310.6 950710.88 955261.12 959922.1 964643.72 969364.38 974011.03 978500.33 982741.25 986639.73 990105.57 993061.79 995455.76 997270.67 998534.27 999320.89 999737.75 999737.75 999737.75 999737.75 999737.75 999737.75 999737.75 999737.75 999737.75 999737.75 999737.75 999737.75 999737.75 999737.75
*SO2 [ppmv]
85713.083 83964.461 81453.871 78741.281 75818.224 72677.883 69315.72 65730.23 61923.826 57903.861 53683.77 49284.312 44734.854 40074.604 35353.648 30633.578 25987.432 21498.559 17257.975 13359.76 9894.111 6938.027 4544.1404 2729.287 1465.7142 679.10339 262.24384 262.24384 262.24384 262.24384 262.24384 262.24384 262.24384 262.24384 262.24384 262.24384 262.24384 262.24384 262.24384 262.24384
*END
